File: raman_mos2.txt
raman_shift	intensity
-18.8597	6
-14.3731	8
-9.8912	8
-5.409811	9
-0.930318	32
3.54728	20
8.021615	12
12.49542	10
16.966	10
21.4333	8
25.9	7
30.3636	11
34.8252	8
39.2849	8
43.7414	7
48.1961	10
52.6502	11
57.101	10
61.55	11
65.9958	9
70.4396	7
74.8816	11
79.32177	9
83.7587	11
88.1951	15
92.6269	12
97.05954	15
101.488	10
105.914	13
110.34	14
114.762	15
119.181	17
123.6	26
128.016	50
132.431	96
136.841	172
141.25	292
145.658	362
150.063	382
154.466	368
158.866	336
163.266	317
167.663	310
172.056	306
176.45	302
180.838	337
185.226	342
189.613	337
193.997	341
198.379	348
202.758	351
207.133	363
211.51	373
215.882	383
220.253	360
224.622	378
228.988	346
233.353	306
237.716	279
242.074	276
246.432	277
250.79	262
255.143	265
259.494	268
263.843	264
268.191	255
272.537	268
276.881	268
281.22	283
285.56	293
289.896	292
294.23	305
298.565	318
302.896	330
307.222	339
311.548	348
315.8735	360
320.195	337
324.517	348
328.834	371
333.149	377
337.463	427
341.7756	474
346.083	555
350.391	586
354.697	598
359	705
363.301	683
367.599	705
371.897	779
376.1915	987
380.486	2644
384.774	2060
389.064	766
393.35	890
397.633	1605
401.916	4238
406.196	5188
410.475	2060
414.752	1126
419.027	781
423.297	712
427.567	685
431.837	707
436.102	744
440.367	749
444.627	753
448.886	723
453.145	652
457.4	593
461.651	489
465.905	379
470.155	272
474.4025	238
478.645	244
482.889	256
487.131	271
491.369	303
495.606	319
499.84	334
504.073	385
508.303	553
512.533	940
516.7605	2747
520.984	6231
525.208	2258
529.4281	1010
533.6463	670
537.863	556
542.078	468
546.291	468
550.501	460
554.71	457
558.915	457
563.119	466
567.323	433
571.521	408
575.721	406
579.917	394
584.112	387
588.303	388
592.493	387
596.683	371
600.8689	333
605.053	313
609.234	314
613.414	322
617.5929	311
621.769	303
625.941	288
630.116	266
634.286	249
638.455	235
642.618	219
646.784	199
650.944	192
655.106	194
659.263	195
663.419	195
667.572	208
671.725	220
675.877	217
680.022	221
684.17	226
688.314	236
692.454	241
696.595	247
700.733	256
704.8703	249
709.004	222
713.135	241
717.267	237
721.3949	251
725.521	260
729.644	270
733.767	273
737.8877	304
742.007	326
746.122	361
750.238	378
754.3501	366
758.46	338
762.569	301
766.676	258
770.778	233
774.8819	256
778.981	250
783.082	233
787.178	230
791.273	216
795.366	211
799.457	207
803.544	207
807.632	241
811.717	246
815.799	267
819.882	270
823.961	245
828.037	213
832.112	184
836.186	170
840.2569	166
844.325	166
848.394	153
852.46	162
856.523	157
860.5835	152
864.643	153
868.702	151
872.757	153
876.811	155
880.862	149
884.912	147
888.96	148
893.008	164
897.049	156
901.094	156
905.134	162
909.171	167
913.2074	166
917.243	166
921.275	170
925.307	182
929.335	192
933.363	222
937.388	258
941.41	303
945.431	299
949.451	306
953.467	306
957.483	317
961.496	307
965.509	309
969.519	335
973.526	327
977.531	317
981.536	339
985.5376	333
989.538	283
993.536	252
997.532	216
1001.53	198
1005.52	185
1009.51	174
1013.5	170
1017.48	154
1021.47	153
1025.45	136
1029.43	138
1033.41	127
1037.39	122
1041.37	107
1045.34	109
1049.31	97
1053.28	108
1057.25	102
1060.23	103